#FORMAT	     : EMSA/MAS Spectral Data File
#VERSION     : 1.0
#TITLE       : CaCO3(0-0920eV)
#DATE        : 
#TIME        : 
#OWNER       : 
#NPOINTS     : 1023
#NCOLUMNS    : 1
#XUNITS      : eV
#YUNITS      : 
#DATATYPE    : XY
#XPERCHAN    : 1.000000e+000
#OFFSET      : -9.700000e+001
#SPECTRUM    : Spectral Data Starts Here
-9.700000e+001, 1.000000e-001
-9.600000e+001, 1.000000e-001
-9.500000e+001, 1.000000e-001
-9.400000e+001, 1.000000e-001
-9.300000e+001, 1.000000e-001
-9.200000e+001, 1.000000e-001
-9.100000e+001, 1.000000e-001
-9.000000e+001, 1.000000e-001
-8.900000e+001, 1.000000e-001
-8.800000e+001, 1.000000e-001
-8.700000e+001, 1.000000e-001
-8.600000e+001, 8.330000e+002
-8.500000e+001, 9.410010e+002
-8.400000e+001, 9.770000e+002
-8.300000e+001, 1.017000e+003
-8.200000e+001, 1.049000e+003
-8.100000e+001, 1.118000e+003
-8.000000e+001, 1.195000e+003
-7.900000e+001, 1.266000e+003
-7.800000e+001, 1.340000e+003
-7.700000e+001, 1.479000e+003
-7.600000e+001, 1.699000e+003
-7.500000e+001, 1.739000e+003
-7.400000e+001, 1.808000e+003
-7.300000e+001, 1.880000e+003
-7.200000e+001, 1.990000e+003
-7.100000e+001, 2.099000e+003
-7.000000e+001, 2.137000e+003
-6.900000e+001, 2.135000e+003
-6.800000e+001, 2.136000e+003
-6.700000e+001, 2.135000e+003
-6.600000e+001, 2.134000e+003
-6.500000e+001, 2.138000e+003
-6.400000e+001, 2.133000e+003
-6.300000e+001, 2.140000e+003
-6.200000e+001, 2.137000e+003
-6.100000e+001, 2.133000e+003
-6.000000e+001, 2.132000e+003
-5.900000e+001, 2.138000e+003
-5.800000e+001, 2.137000e+003
-5.700000e+001, 2.141000e+003
-5.600000e+001, 2.132000e+003
-5.500000e+001, 2.135000e+003
-5.400000e+001, 2.136000e+003
-5.300000e+001, 2.137000e+003
-5.200000e+001, 2.140000e+003
-5.100000e+001, 2.133000e+003
-5.000000e+001, 2.138000e+003
-4.900000e+001, 2.137000e+003
-4.800000e+001, 2.135000e+003
-4.700000e+001, 2.137000e+003
-4.600000e+001, 2.134000e+003
-4.500000e+001, 2.139000e+003
-4.400000e+001, 2.140000e+003
-4.300000e+001, 2.137000e+003
-4.200000e+001, 2.132000e+003
-4.100000e+001, 2.142000e+003
-4.000000e+001, 2.135000e+003
-3.900000e+001, 2.137000e+003
-3.800000e+001, 2.141000e+003
-3.700000e+001, 2.136000e+003
-3.600000e+001, 2.134000e+003
-3.500000e+001, 2.136000e+003
-3.400000e+001, 2.144000e+003
-3.300000e+001, 2.139000e+003
-3.200000e+001, 2.134000e+003
-3.100000e+001, 2.137000e+003
-3.000000e+001, 2.138000e+003
-2.900000e+001, 2.140000e+003
-2.800000e+001, 2.142000e+003
-2.700000e+001, 2.134000e+003
-2.600000e+001, 2.143000e+003
-2.500000e+001, 2.134000e+003
-2.400000e+001, 2.143000e+003
-2.300000e+001, 2.142000e+003
-2.200000e+001, 2.137000e+003
-2.100000e+001, 2.138000e+003
-2.000000e+001, 2.146000e+003
-1.900000e+001, 2.137000e+003
-1.800000e+001, 2.142000e+003
-1.700000e+001, 2.145000e+003
-1.600000e+001, 2.144000e+003
-1.500000e+001, 2.141000e+003
-1.400000e+001, 2.145000e+003
-1.300000e+001, 2.145000e+003
-1.200000e+001, 2.148000e+003
-1.100000e+001, 2.149000e+003
-1.000000e+001, 2.160000e+003
-9.000000e+000, 2.162000e+003
-8.000000e+000, 2.183000e+003
-7.000000e+000, 2.219000e+003
-6.000000e+000, 2.313000e+003
-5.000000e+000, 2.467000e+003
-4.000000e+000, 3.155000e+003
-3.000000e+000, 5.315000e+003
-2.000000e+000, 2.050300e+004
-1.000000e+000, 1.374120e+005
0.000000e+000, 4.939160e+005
1.000000e+000, 1.755950e+005
2.000000e+000, 2.925700e+004
3.000000e+000, 8.265000e+003
4.000000e+000, 4.991000e+003
5.000000e+000, 4.445000e+003
6.000000e+000, 4.621000e+003
7.000000e+000, 5.339000e+003
8.000000e+000, 6.120000e+003
9.000000e+000, 6.608000e+003
1.000000e+001, 6.802000e+003
1.100000e+001, 6.897000e+003
1.200000e+001, 7.337000e+003
1.300000e+001, 8.178000e+003
1.400000e+001, 9.139000e+003
1.500000e+001, 8.902000e+003
1.600000e+001, 7.796000e+003
1.700000e+001, 7.746000e+003
1.800000e+001, 8.207000e+003
1.900000e+001, 8.126000e+003
2.000000e+001, 7.962000e+003
2.100000e+001, 7.795000e+003
2.200000e+001, 7.310000e+003
2.300000e+001, 6.776000e+003
2.400000e+001, 6.395000e+003
2.500000e+001, 6.233000e+003
2.600000e+001, 6.220000e+003
2.700000e+001, 6.474000e+003
2.800000e+001, 6.854000e+003
2.900000e+001, 7.045000e+003
3.000000e+001, 7.171000e+003
3.100000e+001, 7.319000e+003
3.200000e+001, 7.691000e+003
3.300000e+001, 8.379000e+003
3.400000e+001, 9.620000e+003
3.500000e+001, 1.096300e+004
3.600000e+001, 1.176000e+004
3.700000e+001, 1.158600e+004
3.800000e+001, 1.066300e+004
3.900000e+001, 9.781000e+003
4.000000e+001, 8.948000e+003
4.100000e+001, 8.086000e+003
4.200000e+001, 7.271000e+003
4.300000e+001, 6.709000e+003
4.400000e+001, 6.329000e+003
4.500000e+001, 6.047000e+003
4.600000e+001, 5.750000e+003
4.700000e+001, 5.488000e+003
4.800000e+001, 5.258000e+003
4.900000e+001, 5.090000e+003
5.000000e+001, 4.992000e+003
5.100000e+001, 4.874000e+003
5.200000e+001, 4.765000e+003
5.300000e+001, 4.660000e+003
5.400000e+001, 4.572000e+003
5.500000e+001, 4.501000e+003
5.600000e+001, 4.419000e+003
5.700000e+001, 4.347000e+003
5.800000e+001, 4.285000e+003
5.900000e+001, 4.224000e+003
6.000000e+001, 4.172000e+003
6.100000e+001, 4.118000e+003
6.200000e+001, 4.058000e+003
6.300000e+001, 4.007000e+003
6.400000e+001, 3.963000e+003
6.500000e+001, 3.925000e+003
6.600000e+001, 3.892000e+003
6.700000e+001, 3.870000e+003
6.800000e+001, 3.848000e+003
6.900000e+001, 3.820000e+003
7.000000e+001, 3.815000e+003
7.100000e+001, 3.792000e+003
7.200000e+001, 3.769000e+003
7.300000e+001, 3.735000e+003
7.400000e+001, 3.711000e+003
7.500000e+001, 3.663000e+003
7.600000e+001, 3.634000e+003
7.700000e+001, 3.585000e+003
7.800000e+001, 3.542000e+003
7.900000e+001, 3.493000e+003
8.000000e+001, 3.452000e+003
8.100000e+001, 3.413000e+003
8.200000e+001, 3.369000e+003
8.300000e+001, 3.338000e+003
8.400000e+001, 3.289000e+003
8.500000e+001, 3.269000e+003
8.600000e+001, 3.242000e+003
8.700000e+001, 3.209000e+003
8.800000e+001, 3.182000e+003
8.900000e+001, 3.153000e+003
9.000000e+001, 3.124000e+003
9.100000e+001, 3.110000e+003
9.200000e+001, 3.082000e+003
9.300000e+001, 3.054000e+003
9.400000e+001, 3.031000e+003
9.500000e+001, 3.014000e+003
9.600000e+001, 2.986000e+003
9.700000e+001, 2.967000e+003
9.800000e+001, 2.949000e+003
9.900000e+001, 2.932000e+003
1.000000e+002, 2.916000e+003
1.010000e+002, 2.904000e+003
1.020000e+002, 2.878000e+003
1.030000e+002, 2.868000e+003
1.040000e+002, 2.848000e+003
1.050000e+002, 2.836000e+003
1.060000e+002, 2.828000e+003
1.070000e+002, 2.806000e+003
1.080000e+002, 2.796000e+003
1.090000e+002, 2.779000e+003
1.100000e+002, 2.771000e+003
1.110000e+002, 2.759000e+003
1.120000e+002, 2.754000e+003
1.130000e+002, 2.733000e+003
1.140000e+002, 2.720000e+003
1.150000e+002, 2.708000e+003
1.160000e+002, 2.703000e+003
1.170000e+002, 2.687000e+003
1.180000e+002, 2.680000e+003
1.190000e+002, 2.668000e+003
1.200000e+002, 2.657000e+003
1.210000e+002, 2.649000e+003
1.220000e+002, 2.633000e+003
1.230000e+002, 2.626000e+003
1.240000e+002, 2.624000e+003
1.250000e+002, 2.186800e+004
1.260000e+002, 5.389100e+004
1.270000e+002, 7.257510e+004
1.280000e+002, 1.065220e+005
1.290000e+002, 1.140410e+005
1.300000e+002, 1.121710e+005
1.310000e+002, 1.131560e+005
1.320000e+002, 1.144300e+005
1.330000e+002, 1.181710e+005
1.340000e+002, 1.213850e+005
1.350000e+002, 1.244430e+005
1.360000e+002, 1.306650e+005
1.370000e+002, 1.379570e+005
1.380000e+002, 1.565390e+005
1.390000e+002, 1.577720e+005
1.400000e+002, 1.693140e+005
1.410000e+002, 1.717090e+005
1.420000e+002, 1.787540e+005
1.430000e+002, 1.851380e+005
1.440000e+002, 1.810180e+005
1.450000e+002, 1.780640e+005
1.460000e+002, 1.739630e+005
1.470000e+002, 1.714580e+005
1.480000e+002, 1.681230e+005
1.490000e+002, 1.657040e+005
1.500000e+002, 1.628280e+005
1.510000e+002, 1.600010e+005
1.520000e+002, 1.576600e+005
1.530000e+002, 1.546900e+005
1.540000e+002, 1.519820e+005
1.550000e+002, 1.511680e+005
1.560000e+002, 1.482670e+005
1.570000e+002, 1.455830e+005
1.580000e+002, 1.424910e+005
1.590000e+002, 1.418590e+005
1.600000e+002, 1.381000e+005
1.610000e+002, 1.364530e+005
1.620000e+002, 1.340350e+005
1.630000e+002, 1.323320e+005
1.640000e+002, 1.302270e+005
1.650000e+002, 1.280810e+005
1.660000e+002, 1.257370e+005
1.670000e+002, 1.239860e+005
1.680000e+002, 1.215720e+005
1.690000e+002, 1.195540e+005
1.700000e+002, 1.182750e+005
1.710000e+002, 1.163610e+005
1.720000e+002, 1.137620e+005
1.730000e+002, 1.125590e+005
1.740000e+002, 1.105420e+005
1.750000e+002, 1.084380e+005
1.760000e+002, 1.068180e+005
1.770000e+002, 1.054410e+005
1.780000e+002, 1.038530e+005
1.790000e+002, 1.025280e+005
1.800000e+002, 1.008640e+005
1.810000e+002, 9.919100e+004
1.820000e+002, 9.784100e+004
1.830000e+002, 9.632500e+004
1.840000e+002, 9.494600e+004
1.850000e+002, 9.388900e+004
1.860000e+002, 9.183400e+004
1.870000e+002, 9.098010e+004
1.880000e+002, 9.010000e+004
1.890000e+002, 8.945300e+004
1.900000e+002, 8.789000e+004
1.910000e+002, 8.573010e+004
1.920000e+002, 8.503800e+004
1.930000e+002, 8.409900e+004
1.940000e+002, 8.308800e+004
1.950000e+002, 8.185600e+004
1.960000e+002, 8.112900e+004
1.970000e+002, 7.998600e+004
1.980000e+002, 7.923810e+004
1.990000e+002, 7.803200e+004
2.000000e+002, 7.740900e+004
2.010000e+002, 7.628800e+004
2.020000e+002, 7.546600e+004
2.030000e+002, 7.435600e+004
2.040000e+002, 7.329710e+004
2.050000e+002, 7.281900e+004
2.060000e+002, 7.127200e+004
2.070000e+002, 7.106800e+004
2.080000e+002, 7.035400e+004
2.090000e+002, 6.944510e+004
2.100000e+002, 6.859010e+004
2.110000e+002, 6.702000e+004
2.120000e+002, 6.671200e+004
2.130000e+002, 6.565100e+004
2.140000e+002, 6.487400e+004
2.150000e+002, 6.434500e+004
2.160000e+002, 6.360200e+004
2.170000e+002, 6.285800e+004
2.180000e+002, 6.204200e+004
2.190000e+002, 6.146500e+004
2.200000e+002, 6.042500e+004
2.210000e+002, 5.989600e+004
2.220000e+002, 5.952800e+004
2.230000e+002, 5.847300e+004
2.240000e+002, 5.782300e+004
2.250000e+002, 5.686500e+004
2.260000e+002, 5.642900e+004
2.270000e+002, 5.592100e+004
2.280000e+002, 5.515700e+004
2.290000e+002, 5.454800e+004
2.300000e+002, 5.349200e+004
2.310000e+002, 5.314100e+004
2.320000e+002, 5.245900e+004
2.330000e+002, 5.206400e+004
2.340000e+002, 5.163100e+004
2.350000e+002, 5.109600e+004
2.360000e+002, 5.000810e+004
2.370000e+002, 4.990300e+004
2.380000e+002, 4.969700e+004
2.390000e+002, 4.839600e+004
2.400000e+002, 4.796600e+004
2.410000e+002, 4.780000e+004
2.420000e+002, 4.698900e+004
2.430000e+002, 4.644400e+004
2.440000e+002, 4.595600e+004
2.450000e+002, 4.559000e+004
2.460000e+002, 4.497800e+004
2.470000e+002, 4.437200e+004
2.480000e+002, 4.400400e+004
2.490000e+002, 4.369800e+004
2.500000e+002, 4.365800e+004
2.510000e+002, 4.254400e+004
2.520000e+002, 4.217200e+004
2.530000e+002, 4.188700e+004
2.540000e+002, 4.155600e+004
2.550000e+002, 4.132500e+004
2.560000e+002, 4.102400e+004
2.570000e+002, 4.042300e+004
2.580000e+002, 4.026200e+004
2.590000e+002, 3.962000e+004
2.600000e+002, 3.952800e+004
2.610000e+002, 3.888100e+004
2.620000e+002, 3.866100e+004
2.630000e+002, 3.806900e+004
2.640000e+002, 3.801800e+004
2.650000e+002, 3.753200e+004
2.660000e+002, 3.683600e+004
2.670000e+002, 3.697800e+004
2.680000e+002, 3.619700e+004
2.690000e+002, 3.588100e+004
2.700000e+002, 3.599300e+004
2.710000e+002, 3.544500e+004
2.720000e+002, 3.523500e+004
2.730000e+002, 3.522400e+004
2.740000e+002, 3.456100e+004
2.750000e+002, 3.405600e+004
2.760000e+002, 3.386700e+004
2.770000e+002, 3.333700e+004
2.780000e+002, 3.315100e+004
2.790000e+002, 3.317400e+004
2.800000e+002, 3.258500e+004
2.810000e+002, 3.177500e+004
2.820000e+002, 3.200700e+004
2.830000e+002, 3.216500e+004
2.840000e+002, 3.277000e+004
2.850000e+002, 3.238000e+004
2.860000e+002, 3.183500e+004
2.870000e+002, 3.257100e+004
2.880000e+002, 3.451100e+004
2.890000e+002, 3.599400e+004
2.900000e+002, 3.501600e+004
2.910000e+002, 3.238400e+004
2.920000e+002, 3.177400e+004
2.930000e+002, 3.197200e+004
2.940000e+002, 3.232800e+004
2.950000e+002, 3.221600e+004
2.960000e+002, 3.256300e+004
2.970000e+002, 3.303200e+004
2.980000e+002, 3.340500e+004
2.990000e+002, 3.403900e+004
3.000000e+002, 3.432500e+004
3.010000e+002, 3.345100e+004
3.020000e+002, 3.195400e+004
3.030000e+002, 3.085900e+004
3.040000e+002, 2.981900e+004
3.050000e+002, 2.926300e+004
3.060000e+002, 2.893500e+004
3.070000e+002, 2.866800e+004
3.080000e+002, 2.851200e+004
3.090000e+002, 2.810700e+004
3.100000e+002, 2.782800e+004
3.110000e+002, 2.747700e+004
3.120000e+002, 2.724800e+004
3.130000e+002, 2.708000e+004
3.140000e+002, 2.686300e+004
3.150000e+002, 2.682200e+004
3.160000e+002, 2.653400e+004
3.170000e+002, 2.642200e+004
3.180000e+002, 2.622400e+004
3.190000e+002, 2.608400e+004
3.200000e+002, 2.601600e+004
3.210000e+002, 2.578700e+004
3.220000e+002, 2.557700e+004
3.230000e+002, 2.533300e+004
3.240000e+002, 2.531900e+004
3.250000e+002, 2.512400e+004
3.260000e+002, 2.511600e+004
3.270000e+002, 2.492100e+004
3.280000e+002, 2.449400e+004
3.290000e+002, 2.449600e+004
3.300000e+002, 2.425900e+004
3.310000e+002, 2.424100e+004
3.320000e+002, 2.407800e+004
3.330000e+002, 2.346800e+004
3.340000e+002, 2.364500e+004
3.350000e+002, 2.332000e+004
3.360000e+002, 2.323300e+004
3.370000e+002, 2.294400e+004
3.380000e+002, 2.257400e+004
3.390000e+002, 2.243400e+004
3.400000e+002, 2.261100e+004
3.410000e+002, 2.234700e+004
3.420000e+002, 2.259800e+004
3.430000e+002, 2.272800e+004
3.440000e+002, 2.590900e+004
3.450000e+002, 3.728600e+004
3.460000e+002, 5.464000e+004
3.470000e+002, 7.235010e+004
3.480000e+002, 7.685700e+004
3.490000e+002, 6.989000e+004
3.500000e+002, 8.214500e+004
3.510000e+002, 9.925300e+004
3.520000e+002, 6.917500e+004
3.530000e+002, 4.457600e+004
3.540000e+002, 3.718500e+004
3.550000e+002, 3.456400e+004
3.560000e+002, 3.372000e+004
3.570000e+002, 3.338000e+004
3.580000e+002, 3.396100e+004
3.590000e+002, 3.406700e+004
3.600000e+002, 3.342100e+004
3.610000e+002, 3.326900e+004
3.620000e+002, 3.324600e+004
3.630000e+002, 3.386600e+004
3.640000e+002, 3.415700e+004
3.650000e+002, 3.455400e+004
3.660000e+002, 3.421800e+004
3.670000e+002, 3.366400e+004
3.680000e+002, 3.554500e+004
3.690000e+002, 3.501000e+004
3.700000e+002, 3.563200e+004
3.710000e+002, 3.541500e+004
3.720000e+002, 3.540500e+004
3.730000e+002, 3.483600e+004
3.740000e+002, 3.516100e+004
3.750000e+002, 3.487600e+004
3.760000e+002, 3.464800e+004
3.770000e+002, 3.497900e+004
3.780000e+002, 3.565800e+004
3.790000e+002, 3.553100e+004
3.800000e+002, 3.575900e+004
3.810000e+002, 3.652600e+004
3.820000e+002, 3.623700e+004
3.830000e+002, 3.620700e+004
3.840000e+002, 3.620500e+004
3.850000e+002, 3.562500e+004
3.860000e+002, 3.501800e+004
3.870000e+002, 3.469600e+004
3.880000e+002, 3.422200e+004
3.890000e+002, 3.332000e+004
3.900000e+002, 3.262800e+004
3.910000e+002, 3.196800e+004
3.920000e+002, 3.173100e+004
3.930000e+002, 3.121300e+004
3.940000e+002, 3.059900e+004
3.950000e+002, 3.050600e+004
3.960000e+002, 3.043900e+004
3.970000e+002, 2.999100e+004
3.980000e+002, 3.018300e+004
3.990000e+002, 3.030600e+004
4.000000e+002, 3.040700e+004
4.010000e+002, 3.061500e+004
4.020000e+002, 3.058300e+004
4.030000e+002, 3.069000e+004
4.040000e+002, 3.044200e+004
4.050000e+002, 3.043800e+004
4.060000e+002, 3.051600e+004
4.070000e+002, 3.075200e+004
4.080000e+002, 3.045700e+004
4.090000e+002, 3.055100e+004
4.100000e+002, 3.062700e+004
4.110000e+002, 3.068000e+004
4.120000e+002, 3.038400e+004
4.130000e+002, 3.038700e+004
4.140000e+002, 3.050600e+004
4.150000e+002, 2.962400e+004
4.160000e+002, 2.990000e+004
4.170000e+002, 2.944000e+004
4.180000e+002, 2.894600e+004
4.190000e+002, 2.877500e+004
4.200000e+002, 2.878000e+004
4.210000e+002, 2.889300e+004
4.220000e+002, 2.861700e+004
4.230000e+002, 2.829500e+004
4.240000e+002, 2.800700e+004
4.250000e+002, 2.770300e+004
4.260000e+002, 2.774800e+004
4.270000e+002, 2.737900e+004
4.280000e+002, 2.704800e+004
4.290000e+002, 2.697500e+004
4.300000e+002, 2.667500e+004
4.310000e+002, 2.633700e+004
4.320000e+002, 2.630400e+004
4.330000e+002, 2.627500e+004
4.340000e+002, 2.612900e+004
4.350000e+002, 2.639100e+004
4.360000e+002, 2.719500e+004
4.370000e+002, 2.777100e+004
4.380000e+002, 2.855600e+004
4.390000e+002, 2.832200e+004
4.400000e+002, 2.766700e+004
4.410000e+002, 2.734000e+004
4.420000e+002, 2.674200e+004
4.430000e+002, 2.659300e+004
4.440000e+002, 2.660400e+004
4.450000e+002, 2.615100e+004
4.460000e+002, 2.631600e+004
4.470000e+002, 2.618100e+004
4.480000e+002, 2.598400e+004
4.490000e+002, 2.626500e+004
4.500000e+002, 2.600200e+004
4.510000e+002, 2.607500e+004
4.520000e+002, 2.584200e+004
4.530000e+002, 2.582500e+004
4.540000e+002, 2.504900e+004
4.550000e+002, 2.479600e+004
4.560000e+002, 2.500100e+004
4.570000e+002, 2.490600e+004
4.580000e+002, 2.429400e+004
4.590000e+002, 2.475600e+004
4.600000e+002, 2.438000e+004
4.610000e+002, 2.408800e+004
4.620000e+002, 2.413100e+004
4.630000e+002, 2.369800e+004
4.640000e+002, 2.381700e+004
4.650000e+002, 2.337300e+004
4.660000e+002, 2.360200e+004
4.670000e+002, 2.333700e+004
4.680000e+002, 2.302600e+004
4.690000e+002, 2.280000e+004
4.700000e+002, 2.309900e+004
4.710000e+002, 2.267800e+004
4.720000e+002, 2.261400e+004
4.730000e+002, 2.271300e+004
4.740000e+002, 2.255000e+004
4.750000e+002, 2.235700e+004
4.760000e+002, 2.227400e+004
4.770000e+002, 2.219900e+004
4.780000e+002, 2.182200e+004
4.790000e+002, 2.192100e+004
4.800000e+002, 2.211500e+004
4.810000e+002, 2.178700e+004
4.820000e+002, 2.187000e+004
4.830000e+002, 2.172000e+004
4.840000e+002, 2.169000e+004
4.850000e+002, 2.137300e+004
4.860000e+002, 2.177500e+004
4.870000e+002, 2.187400e+004
4.880000e+002, 2.136500e+004
4.890000e+002, 2.189100e+004
4.900000e+002, 2.172500e+004
4.910000e+002, 2.125200e+004
4.920000e+002, 2.119400e+004
4.930000e+002, 2.093700e+004
4.940000e+002, 2.109100e+004
4.950000e+002, 2.074600e+004
4.960000e+002, 2.062700e+004
4.970000e+002, 2.028100e+004
4.980000e+002, 2.015400e+004
4.990000e+002, 1.999600e+004
5.000000e+002, 1.966100e+004
5.010000e+002, 1.968200e+004
5.020000e+002, 1.962700e+004
5.030000e+002, 1.937200e+004
5.040000e+002, 1.939000e+004
5.050000e+002, 1.930200e+004
5.060000e+002, 1.912500e+004
5.070000e+002, 1.895700e+004
5.080000e+002, 1.896600e+004
5.090000e+002, 1.905200e+004
5.100000e+002, 1.873800e+004
5.110000e+002, 1.845800e+004
5.120000e+002, 1.842300e+004
5.130000e+002, 1.818800e+004
5.140000e+002, 1.834000e+004
5.150000e+002, 1.832500e+004
5.160000e+002, 1.800800e+004
5.170000e+002, 1.823800e+004
5.180000e+002, 1.797000e+004
5.190000e+002, 1.794900e+004
5.200000e+002, 1.811800e+004
5.210000e+002, 1.780000e+004
5.220000e+002, 1.747100e+004
5.230000e+002, 1.764900e+004
5.240000e+002, 1.779900e+004
5.250000e+002, 1.749600e+004
5.260000e+002, 1.738800e+004
5.270000e+002, 1.745100e+004
5.280000e+002, 1.756900e+004
5.290000e+002, 1.752300e+004
5.300000e+002, 1.801500e+004
5.310000e+002, 1.935600e+004
5.320000e+002, 2.214400e+004
5.330000e+002, 2.351300e+004
5.340000e+002, 2.196200e+004
5.350000e+002, 2.120600e+004
5.360000e+002, 2.150900e+004
5.370000e+002, 2.196900e+004
5.380000e+002, 2.124800e+004
5.390000e+002, 2.129300e+004
5.400000e+002, 2.098600e+004
5.410000e+002, 2.054200e+004
5.420000e+002, 1.988400e+004
5.430000e+002, 1.976100e+004
5.440000e+002, 1.979500e+004
5.450000e+002, 1.949400e+004
5.460000e+002, 1.917000e+004
5.470000e+002, 1.885600e+004
5.480000e+002, 1.913100e+004
5.490000e+002, 1.901300e+004
5.500000e+002, 1.950900e+004
5.510000e+002, 1.973000e+004
5.520000e+002, 1.969000e+004
5.530000e+002, 1.987000e+004
5.540000e+002, 1.956700e+004
5.550000e+002, 1.935400e+004
5.560000e+002, 1.895700e+004
5.570000e+002, 1.854500e+004
5.580000e+002, 1.833400e+004
5.590000e+002, 1.797400e+004
5.600000e+002, 1.825400e+004
5.610000e+002, 1.809200e+004
5.620000e+002, 1.820000e+004
5.630000e+002, 1.808800e+004
5.640000e+002, 1.804100e+004
5.650000e+002, 1.793000e+004
5.660000e+002, 1.768600e+004
5.670000e+002, 1.734900e+004
5.680000e+002, 1.773700e+004
5.690000e+002, 1.757100e+004
5.700000e+002, 1.752700e+004
5.710000e+002, 1.770000e+004
5.720000e+002, 1.763300e+004
5.730000e+002, 1.774700e+004
5.740000e+002, 1.741100e+004
5.750000e+002, 1.751500e+004
5.760000e+002, 1.733000e+004
